THRUFOCUS  5.10 
File:
Date:    
Time:    
Lens Name:    
Lens ID:    
Operator:    
Focal Length:      24.56
F#:       5.00
Defocus:       0.00

Display Information

Line Start:        0
View:    Defocus
View Horizontal or Vertical:    Both
Display Diffraction Limit:    No
Display Lens Specification Curve:    No
Full Scale Display Frequency:      40.00

Scan Type:    Both
TestMode:    Infinite
Object Type:    Pinhole
Object Size (microns):     102.00
Field Angle:       0.00
Magnification of Lens Under Test:       1.00
Relay Lens Magnification:      20.17
Collimator Focal Length (mm) :     356.10
Typical WaveLength:     546.00

Focusing Lens Focal Length (mm) :      10.00
Entrance Pupil Diameter (mm) :      20.00
Camera Name:    20x 0.40NA
CCD Pixel Spacing (microns) :       7.49	    7.50
Combined Maximum Spatial Frequency:    1346.10	 1344.67
Frame Grabber Size:      648	   483
Active Pixel Size:      648	   483
Trace Length Used:      128
Trace Width Used:       64
Position X:      317
Position Y:      267
Number of Frames:       10
Comments:  



Thru-Focus Information

Start Position:    -50.00
Final Position:    150.00
Number of Planes:       21
Defocus Frequency:     40.00
Strehl From Freq:      5.00
Strehl To Freq:    150.00
Spline Fit Is Enabled?:   0
Number of Points Inserted In Spline Fit:        3
MTF Algorithm (0-FFT; 1-FFT/wABC; 2-FFT/wBeta; 3-Sin-Cos FT; 4-Sin-Cos FT/wABC):        0
FFT with Spline Fitting?: 1
Number of Points in FFT Transformation with Fitting:       65
Knife Edge Scan Used?:   0
Focus Motor Name: Image Z
Focus Motor Step Unit: microns
Focus Motor Position:      0.0
Camera Binning Factor:         1
Camera Gamma Used:    1.0000

Horizontal Freq (lp/mm)  MTF @

Horizontal Freq (lp/mm)  MTF @
   0.00 	 100.00 	 100.00 	 100.00 	 100.00 	 100.00 	 100.00 	 100.00 	 100.00 	 100.00 	 100.00 	 100.00 	 100.00 	 100.00 	 100.00 	 100.00 	 100.00 	 100.00 	 100.00 	 100.00 	 100.00 	 100.00
   1.00 	  99.47 	  99.52 	  99.56 	  99.59 	  99.61 	  99.61 	  99.60 	  99.58 	  99.54 	  99.48 	  99.41 	  99.34 	  99.25 	  99.14 	  99.03 	  98.91 	  98.77 	  98.62 	  98.46 	  98.29 	  98.10
   2.00 	  98.96 	  99.06 	  99.15 	  99.21 	  99.24 	  99.24 	  99.22 	  99.17 	  99.10 	  98.99 	  98.86 	  98.71 	  98.53 	  98.32 	  98.10 	  97.86 	  97.59 	  97.28 	  96.96 	  96.64 	  96.26
   3.00 	  98.49 	  98.63 	  98.75 	  98.84 	  98.89 	  98.89 	  98.87 	  98.80 	  98.69 	  98.52 	  98.33 	  98.11 	  97.84 	  97.54 	  97.20 	  96.85 	  96.45 	  95.99 	  95.52 	  95.03 	  94.47
   4.00 	  98.03 	  98.22 	  98.38 	  98.50 	  98.56 	  98.57 	  98.53 	  98.44 	  98.30 	  98.08 	  97.82 	  97.54 	  97.18 	  96.78 	  96.33 	  95.87 	  95.34 	  94.73 	  94.10 	  93.46 	  92.71
   5.00 	  97.60 	  97.83 	  98.03 	  98.18 	  98.25 	  98.26 	  98.21 	  98.10 	  97.93 	  97.65 	  97.34 	  96.99 	  96.54 	  96.05 	  95.49 	  94.92 	  94.26 	  93.50 	  92.72 	  91.92 	  90.99
   6.00 	  97.18 	  97.46 	  97.70 	  97.87 	  97.96 	  97.96 	  97.91 	  97.77 	  97.57 	  97.24 	  96.87 	  96.45 	  95.92 	  95.33 	  94.67 	  93.98 	  93.20 	  92.29 	  91.36 	  90.41 	  89.29
   7.00 	  96.78 	  97.11 	  97.38 	  97.57 	  97.68 	  97.68 	  97.62 	  97.46 	  97.23 	  96.85 	  96.42 	  95.93 	  95.32 	  94.63 	  93.87 	  93.07 	  92.16 	  91.09 	  90.02 	  88.92 	  87.61
   8.00 	  96.39 	  96.76 	  97.07 	  97.29 	  97.41 	  97.41 	  97.34 	  97.16 	  96.90 	  96.46 	  95.97 	  95.42 	  94.72 	  93.95 	  93.08 	  92.16 	  91.12 	  89.91 	  88.68 	  87.43 	  85.93
   9.00 	  96.01 	  96.42 	  96.77 	  97.02 	  97.15 	  97.15 	  97.07 	  96.87 	  96.58 	  96.09 	  95.54 	  94.92 	  94.14 	  93.26 	  92.29 	  91.26 	  90.09 	  88.73 	  87.35 	  85.94 	  84.26
  10.00 	  95.63 	  96.09 	  96.48 	  96.75 	  96.90 	  96.90 	  96.81 	  96.59 	  96.26 	  95.72 	  95.11 	  94.43 	  93.55 	  92.58 	  91.50 	  90.36 	  89.06 	  87.54 	  86.01 	  84.45 	  82.58
  11.00 	  95.25 	  95.76 	  96.19 	  96.49 	  96.65 	  96.65 	  96.56 	  96.31 	  95.95 	  95.35 	  94.68 	  93.93 	  92.97 	  91.90 	  90.71 	  89.45 	  88.02 	  86.34 	  84.66 	  82.94 	  80.88
  12.00 	  94.88 	  95.44 	  95.90 	  96.23 	  96.41 	  96.41 	  96.31 	  96.03 	  95.64 	  94.99 	  94.25 	  93.43 	  92.38 	  91.21 	  89.90 	  88.53 	  86.96 	  85.13 	  83.29 	  81.41 	  79.16
  13.00 	  94.50 	  95.11 	  95.61 	  95.98 	  96.17 	  96.17 	  96.06 	  95.76 	  95.33 	  94.62 	  93.82 	  92.92 	  91.77 	  90.50 	  89.08 	  87.59 	  85.89 	  83.90 	  81.90 	  79.84 	  77.40
  14.00 	  94.11 	  94.77 	  95.32 	  95.72 	  95.93 	  95.93 	  95.81 	  95.49 	  95.02 	  94.25 	  93.38 	  92.40 	  91.16 	  89.78 	  88.24 	  86.62 	  84.79 	  82.64 	  80.47 	  78.24 	  75.60
  15.00 	  93.71 	  94.43 	  95.02 	  95.45 	  95.68 	  95.68 	  95.55 	  95.21 	  94.70 	  93.87 	  92.93 	  91.87 	  90.53 	  89.04 	  87.38 	  85.63 	  83.65 	  81.34 	  79.00 	  76.59 	  73.76
  16.00 	  93.30 	  94.07 	  94.72 	  95.19 	  95.43 	  95.44 	  95.30 	  94.92 	  94.38 	  93.48 	  92.46 	  91.32 	  89.87 	  88.27 	  86.48 	  84.60 	  82.48 	  80.00 	  77.48 	  74.89 	  71.86
  17.00 	  92.88 	  93.71 	  94.41 	  94.91 	  95.18 	  95.19 	  95.03 	  94.63 	  94.04 	  93.07 	  91.98 	  90.74 	  89.19 	  87.46 	  85.54 	  83.53 	  81.26 	  78.62 	  75.91 	  73.12 	  69.89
  18.00 	  92.43 	  93.32 	  94.08 	  94.62 	  94.91 	  94.93 	  94.76 	  94.33 	  93.69 	  92.65 	  91.47 	  90.14 	  88.48 	  86.63 	  84.57 	  82.41 	  79.99 	  77.17 	  74.27 	  71.29 	  67.84
  19.00 	  91.96 	  92.92 	  93.73 	  94.32 	  94.64 	  94.66 	  94.48 	  94.02 	  93.33 	  92.21 	  90.94 	  89.51 	  87.73 	  85.74 	  83.54 	  81.24 	  78.67 	  75.67 	  72.56 	  69.37 	  65.71
  20.00 	  91.46 	  92.49 	  93.37 	  94.01 	  94.35 	  94.38 	  94.19 	  93.69 	  92.95 	  91.75 	  90.39 	  88.85 	  86.94 	  84.82 	  82.47 	  80.01 	  77.28 	  74.10 	  70.78 	  67.36 	  63.49
  21.00 	  90.94 	  92.04 	  92.99 	  93.68 	  94.05 	  94.08 	  93.88 	  93.34 	  92.55 	  91.26 	  89.80 	  88.14 	  86.10 	  83.84 	  81.33 	  78.71 	  75.81 	  72.45 	  68.91 	  65.25 	  61.17
  22.00 	  90.38 	  91.56 	  92.59 	  93.32 	  93.73 	  93.77 	  93.55 	  92.98 	  92.12 	  90.75 	  89.18 	  87.40 	  85.22 	  82.80 	  80.13 	  77.35 	  74.28 	  70.72 	  66.95 	  63.04 	  58.74
  23.00 	  89.79 	  91.05 	  92.16 	  92.95 	  93.39 	  93.44 	  93.21 	  92.60 	  91.67 	  90.21 	  88.53 	  86.61 	  84.29 	  81.71 	  78.87 	  75.91 	  72.66 	  68.92 	  64.90 	  60.74 	  56.21
  24.00 	  89.17 	  90.51 	  91.71 	  92.56 	  93.04 	  93.10 	  92.86 	  92.20 	  91.20 	  89.64 	  87.84 	  85.79 	  83.32 	  80.57 	  77.55 	  74.41 	  70.99 	  67.04 	  62.77 	  58.35 	  53.60
  25.00 	  88.52 	  89.96 	  91.24 	  92.16 	  92.68 	  92.75 	  92.48 	  91.78 	  90.72 	  89.05 	  87.13 	  84.93 	  82.31 	  79.39 	  76.18 	  72.85 	  69.25 	  65.10 	  60.58 	  55.89 	  50.92
  26.00 	  87.84 	  89.37 	  90.75 	  91.74 	  92.30 	  92.38 	  92.10 	  91.35 	  90.21 	  88.44 	  86.39 	  84.04 	  81.26 	  78.16 	  74.76 	  71.24 	  67.45 	  63.10 	  58.32 	  53.37 	  48.18
  27.00 	  87.14 	  88.77 	  90.25 	  91.30 	  91.90 	  92.00 	  91.70 	  90.91 	  89.69 	  87.81 	  85.62 	  83.12 	  80.17 	  76.89 	  73.30 	  69.59 	  65.60 	  61.05 	  56.02 	  50.80 	  45.40
  28.00 	  86.42 	  88.15 	  89.73 	  90.85 	  91.50 	  91.61 	  91.30 	  90.45 	  89.15 	  87.16 	  84.83 	  82.17 	  79.05 	  75.58 	  71.80 	  67.89 	  63.71 	  58.96 	  53.67 	  48.19 	  42.60
  29.00 	  85.68 	  87.51 	  89.19 	  90.39 	  91.09 	  91.21 	  90.88 	  89.99 	  88.59 	  86.49 	  84.02 	  81.19 	  77.91 	  74.24 	  70.26 	  66.15 	  61.78 	  56.82 	  51.30 	  45.57 	  39.78
  30.00 	  84.91 	  86.85 	  88.64 	  89.92 	  90.66 	  90.80 	  90.45 	  89.51 	  88.03 	  85.81 	  83.19 	  80.19 	  76.73 	  72.88 	  68.69 	  64.38 	  59.82 	  54.66 	  48.90 	  42.93 	  36.96
  31.00 	  84.13 	  86.17 	  88.08 	  89.43 	  90.23 	  90.39 	  90.02 	  89.02 	  87.45 	  85.11 	  82.35 	  79.17 	  75.54 	  71.49 	  67.10 	  62.59 	  57.82 	  52.46 	  46.48 	  40.29 	  34.16
  32.00 	  83.33 	  85.49 	  87.50 	  88.94 	  89.79 	  89.97 	  89.58 	  88.53 	  86.86 	  84.40 	  81.49 	  78.14 	  74.32 	  70.07 	  65.48 	  60.77 	  55.81 	  50.25 	  44.06 	  37.67 	  31.40
  33.00 	  82.52 	  84.79 	  86.92 	  88.44 	  89.34 	  89.54 	  89.13 	  88.02 	  86.27 	  83.68 	  80.62 	  77.09 	  73.09 	  68.64 	  63.85 	  58.94 	  53.78 	  48.03 	  41.65 	  35.07 	  28.68
  34.00 	  81.69 	  84.07 	  86.33 	  87.93 	  88.89 	  89.10 	  88.68 	  87.51 	  85.66 	  82.95 	  79.73 	  76.02 	  71.85 	  67.20 	  62.21 	  57.09 	  51.74 	  45.81 	  39.26 	  32.52 	  26.02
  35.00 	  80.86 	  83.35 	  85.72 	  87.42 	  88.43 	  88.67 	  88.22 	  87.00 	  85.05 	  82.22 	  78.84 	  74.95 	  70.59 	  65.75 	  60.55 	  55.24 	  49.69 	  43.58 	  36.88 	  30.02 	  23.45
  36.00 	  80.02 	  82.63 	  85.12 	  86.90 	  87.97 	  88.23 	  87.76 	  86.49 	  84.44 	  81.48 	  77.94 	  73.87 	  69.33 	  64.29 	  58.90 	  53.40 	  47.64 	  41.37 	  34.55 	  27.59 	  20.98
  37.00 	  79.16 	  81.89 	  84.51 	  86.38 	  87.50 	  87.78 	  87.30 	  85.97 	  83.82 	  80.73 	  77.04 	  72.78 	  68.07 	  62.83 	  57.24 	  51.55 	  45.61 	  39.17 	  32.26 	  25.24 	  18.61
  38.00 	  78.31 	  81.15 	  83.89 	  85.85 	  87.04 	  87.34 	  86.83 	  85.45 	  83.20 	  79.98 	  76.14 	  71.70 	  66.80 	  61.37 	  55.60 	  49.73 	  43.59 	  37.00 	  30.03 	  22.99 	  16.38
  39.00 	  77.45 	  80.41 	  83.27 	  85.33 	  86.57 	  86.90 	  86.37 	  84.93 	  82.59 	  79.24 	  75.23 	  70.61 	  65.54 	  59.92 	  53.96 	  47.92 	  41.59 	  34.86 	  27.87 	  20.85 	  14.30
  40.00 	  76.59 	  79.67 	  82.66 	  84.80 	  86.11 	  86.45 	  85.91 	  84.41 	  81.97 	  78.49 	  74.33 	  69.53 	  64.28 	  58.48 	  52.34 	  46.13 	  39.62 	  32.76 	  25.78 	  18.84 	  12.39
  41.00 	  75.73 	  78.93 	  82.04 	  84.28 	  85.64 	  86.02 	  85.45 	  83.90 	  81.36 	  77.75 	  73.44 	  68.46 	  63.04 	  57.05 	  50.75 	  44.37 	  37.68 	  30.71 	  23.79 	  16.98 	  10.66
  42.00 	  74.87 	  78.19 	  81.42 	  83.76 	  85.18 	  85.58 	  85.00 	  83.39 	  80.75 	  77.01 	  72.55 	  67.39 	  61.81 	  55.65 	  49.18 	  42.66 	  35.79 	  28.72 	  21.90 	  15.27 	   9.14
  43.00 	  74.02 	  77.45 	  80.81 	  83.24 	  84.73 	  85.15 	  84.55 	  82.89 	  80.14 	  76.28 	  71.67 	  66.34 	  60.59 	  54.26 	  47.65 	  40.98 	  33.94 	  26.79 	  20.12 	  13.74 	   7.84
  44.00 	  73.18 	  76.72 	  80.20 	  82.73 	  84.27 	  84.72 	  84.11 	  82.39 	  79.55 	  75.56 	  70.80 	  65.31 	  59.40 	  52.91 	  46.15 	  39.35 	  32.15 	  24.92 	  18.46 	  12.37 	   6.75
  45.00 	  72.34 	  75.99 	  79.60 	  82.22 	  83.83 	  84.30 	  83.67 	  81.90 	  78.96 	  74.85 	  69.94 	  64.28 	  58.22 	  51.57 	  44.68 	  37.77 	  30.40 	  23.13 	  16.91 	  11.17 	   5.87
  46.00 	  71.50 	  75.27 	  79.00 	  81.72 	  83.38 	  83.88 	  83.23 	  81.41 	  78.37 	  74.14 	  69.09 	  63.27 	  57.05 	  50.26 	  43.25 	  36.22 	  28.71 	  21.40 	  15.46 	  10.13 	   5.18
  47.00 	  70.67 	  74.55 	  78.40 	  81.21 	  82.94 	  83.46 	  82.80 	  80.93 	  77.79 	  73.44 	  68.25 	  62.27 	  55.91 	  48.98 	  41.84 	  34.71 	  27.07 	  19.74 	  14.12 	   9.23 	   4.67
  48.00 	  69.85 	  73.83 	  77.81 	  80.71 	  82.50 	  83.05 	  82.38 	  80.45 	  77.22 	  72.75 	  67.42 	  61.29 	  54.78 	  47.71 	  40.47 	  33.25 	  25.48 	  18.15 	  12.88 	   8.47 	   4.33
  49.00 	  69.03 	  73.12 	  77.21 	  80.22 	  82.07 	  82.64 	  81.95 	  79.97 	  76.65 	  72.06 	  66.59 	  60.31 	  53.67 	  46.47 	  39.12 	  31.82 	  23.94 	  16.62 	  11.74 	   7.84 	   4.14
  50.00 	  68.21 	  72.41 	  76.62 	  79.73 	  81.63 	  82.23 	  81.53 	  79.50 	  76.08 	  71.38 	  65.78 	  59.35 	  52.57 	  45.25 	  37.80 	  30.43 	  22.45 	  15.17 	  10.69 	   7.33 	   4.10
  51.00 	  67.40 	  71.71 	  76.04 	  79.23 	  81.20 	  81.83 	  81.12 	  79.04 	  75.52 	  70.70 	  64.97 	  58.40 	  51.48 	  44.04 	  36.51 	  29.08 	  21.02 	  13.79 	   9.74 	   6.94 	   4.18
  52.00 	  66.59 	  71.01 	  75.45 	  78.74 	  80.78 	  81.43 	  80.70 	  78.57 	  74.97 	  70.03 	  64.17 	  57.45 	  50.41 	  42.86 	  35.25 	  27.76 	  19.65 	  12.49 	   8.88 	   6.65 	   4.38
  53.00 	  65.79 	  70.31 	  74.87 	  78.26 	  80.35 	  81.03 	  80.29 	  78.11 	  74.41 	  69.36 	  63.37 	  56.52 	  49.36 	  41.70 	  34.01 	  26.48 	  18.33 	  11.26 	   8.10 	   6.46 	   4.68
  54.00 	  64.99 	  69.61 	  74.29 	  77.77 	  79.93 	  80.63 	  79.88 	  77.66 	  73.87 	  68.70 	  62.59 	  55.60 	  48.32 	  40.56 	  32.79 	  25.23 	  17.06 	  10.10 	   7.41 	   6.36 	   5.07
  55.00 	  64.19 	  68.92 	  73.71 	  77.29 	  79.50 	  80.23 	  79.47 	  77.20 	  73.32 	  68.04 	  61.81 	  54.69 	  47.29 	  39.44 	  31.60 	  24.01 	  15.86 	   9.02 	   6.81 	   6.33 	   5.54
  56.00 	  63.40 	  68.23 	  73.13 	  76.80 	  79.08 	  79.84 	  79.07 	  76.75 	  72.78 	  67.39 	  61.03 	  53.79 	  46.28 	  38.33 	  30.44 	  22.83 	  14.71 	   8.02 	   6.28 	   6.38 	   6.07
  57.00 	  62.62 	  67.54 	  72.56 	  76.32 	  78.66 	  79.45 	  78.66 	  76.30 	  72.24 	  66.74 	  60.26 	  52.89 	  45.28 	  37.25 	  29.29 	  21.68 	  13.62 	   7.10 	   5.83 	   6.49 	   6.64
  58.00 	  61.83 	  66.86 	  71.98 	  75.84 	  78.24 	  79.05 	  78.26 	  75.85 	  71.70 	  66.10 	  59.50 	  52.01 	  44.29 	  36.18 	  28.17 	  20.56 	  12.59 	   6.27 	   5.45 	   6.65 	   7.24
  59.00 	  61.05 	  66.17 	  71.41 	  75.36 	  77.82 	  78.66 	  77.85 	  75.40 	  71.16 	  65.46 	  58.74 	  51.13 	  43.31 	  35.13 	  27.06 	  19.46 	  11.63 	   5.51 	   5.14 	   6.86 	   7.86
  60.00 	  60.28 	  65.49 	  70.83 	  74.88 	  77.40 	  78.27 	  77.45 	  74.95 	  70.63 	  64.82 	  57.99 	  50.27 	  42.34 	  34.10 	  25.98 	  18.40 	  10.73 	   4.84 	   4.90 	   7.09 	   8.47
  61.00 	  59.51 	  64.81 	  70.26 	  74.40 	  76.98 	  77.87 	  77.05 	  74.50 	  70.10 	  64.18 	  57.24 	  49.41 	  41.39 	  33.08 	  24.91 	  17.36 	   9.89 	   4.26 	   4.72 	   7.34 	   9.07
  62.00 	  58.74 	  64.14 	  69.69 	  73.91 	  76.56 	  77.48 	  76.64 	  74.06 	  69.57 	  63.55 	  56.50 	  48.55 	  40.45 	  32.08 	  23.87 	  16.35 	   9.12 	   3.77 	   4.60 	   7.61 	   9.63
  63.00 	  57.97 	  63.46 	  69.12 	  73.43 	  76.14 	  77.08 	  76.24 	  73.61 	  69.04 	  62.92 	  55.76 	  47.71 	  39.52 	  31.09 	  22.84 	  15.36 	   8.41 	   3.37 	   4.54 	   7.87 	  10.14
  64.00 	  57.21 	  62.79 	  68.55 	  72.95 	  75.71 	  76.69 	  75.83 	  73.16 	  68.51 	  62.29 	  55.03 	  46.87 	  38.59 	  30.12 	  21.82 	  14.40 	   7.78 	   3.06 	   4.53 	   8.12 	  10.57

Vertical Freq (lp/mm)  MTF @
   0.00 	 100.00 	 100.00 	 100.00 	 100.00 	 100.00 	 100.00 	 100.00 	 100.00 	 100.00 	 100.00 	 100.00 	 100.00 	 100.00 	 100.00 	 100.00 	 100.00 	 100.00 	 100.00 	 100.00 	 100.00 	 100.00
   1.00 	  99.43 	  99.48 	  99.53 	  99.56 	  99.58 	  99.59 	  99.58 	  99.56 	  99.52 	  99.47 	  99.41 	  99.34 	  99.25 	  99.15 	  99.03 	  98.92 	  98.78 	  98.63 	  98.47 	  98.31 	  98.13
   2.00 	  98.90 	  98.99 	  99.08 	  99.15 	  99.19 	  99.20 	  99.18 	  99.14 	  99.07 	  98.97 	  98.84 	  98.71 	  98.53 	  98.34 	  98.11 	  97.88 	  97.61 	  97.32 	  97.00 	  96.67 	  96.31
   3.00 	  98.39 	  98.53 	  98.67 	  98.75 	  98.82 	  98.83 	  98.80 	  98.75 	  98.65 	  98.50 	  98.31 	  98.11 	  97.85 	  97.56 	  97.22 	  96.89 	  96.48 	  96.04 	  95.57 	  95.09 	  94.54
   4.00 	  97.90 	  98.09 	  98.27 	  98.39 	  98.47 	  98.48 	  98.45 	  98.38 	  98.24 	  98.05 	  97.80 	  97.53 	  97.19 	  96.81 	  96.36 	  95.92 	  95.38 	  94.80 	  94.18 	  93.54 	  92.81
   5.00 	  97.44 	  97.67 	  97.89 	  98.04 	  98.14 	  98.15 	  98.12 	  98.02 	  97.86 	  97.63 	  97.31 	  96.98 	  96.56 	  96.09 	  95.53 	  94.99 	  94.31 	  93.59 	  92.82 	  92.02 	  91.12
   6.00 	  96.99 	  97.27 	  97.53 	  97.70 	  97.82 	  97.84 	  97.80 	  97.69 	  97.50 	  97.22 	  96.84 	  96.45 	  95.95 	  95.39 	  94.72 	  94.07 	  93.26 	  92.40 	  91.48 	  90.53 	  89.44
   7.00 	  96.56 	  96.89 	  97.18 	  97.38 	  97.52 	  97.54 	  97.49 	  97.36 	  97.14 	  96.82 	  96.39 	  95.93 	  95.35 	  94.70 	  93.93 	  93.17 	  92.22 	  91.22 	  90.15 	  89.05 	  87.79
   8.00 	  96.14 	  96.51 	  96.85 	  97.07 	  97.23 	  97.26 	  97.20 	  97.05 	  96.80 	  96.44 	  95.94 	  95.43 	  94.77 	  94.02 	  93.15 	  92.28 	  91.20 	  90.06 	  88.84 	  87.59 	  86.14
   9.00 	  95.73 	  96.14 	  96.52 	  96.77 	  96.95 	  96.98 	  96.91 	  96.75 	  96.47 	  96.06 	  95.50 	  94.93 	  94.19 	  93.35 	  92.37 	  91.40 	  90.18 	  88.90 	  87.52 	  86.12 	  84.50
  10.00 	  95.32 	  95.78 	  96.20 	  96.48 	  96.68 	  96.71 	  96.63 	  96.46 	  96.14 	  95.69 	  95.07 	  94.43 	  93.61 	  92.68 	  91.59 	  90.51 	  89.16 	  87.73 	  86.20 	  84.65 	  82.84
  11.00 	  94.91 	  95.42 	  95.89 	  96.19 	  96.41 	  96.44 	  96.36 	  96.16 	  95.82 	  95.32 	  94.64 	  93.94 	  93.03 	  92.01 	  90.80 	  89.62 	  88.12 	  86.55 	  84.87 	  83.16 	  81.17
  12.00 	  94.50 	  95.06 	  95.57 	  95.91 	  96.15 	  96.18 	  96.09 	  95.88 	  95.50 	  94.95 	  94.21 	  93.44 	  92.44 	  91.33 	  90.01 	  88.71 	  87.08 	  85.36 	  83.52 	  81.65 	  79.47
  13.00 	  94.09 	  94.70 	  95.25 	  95.62 	  95.88 	  95.92 	  95.82 	  95.58 	  95.17 	  94.57 	  93.77 	  92.93 	  91.85 	  90.63 	  89.19 	  87.78 	  86.01 	  84.14 	  82.15 	  80.10 	  77.74
  14.00 	  93.67 	  94.32 	  94.93 	  95.33 	  95.61 	  95.65 	  95.55 	  95.29 	  94.85 	  94.19 	  93.32 	  92.40 	  91.23 	  89.92 	  88.36 	  86.83 	  84.92 	  82.90 	  80.73 	  78.52 	  75.97
  15.00 	  93.23 	  93.94 	  94.60 	  95.03 	  95.34 	  95.38 	  95.27 	  94.99 	  94.51 	  93.80 	  92.85 	  91.86 	  90.60 	  89.18 	  87.50 	  85.85 	  83.79 	  81.61 	  79.28 	  76.89 	  74.15
  16.00 	  92.78 	  93.55 	  94.26 	  94.72 	  95.06 	  95.11 	  94.98 	  94.68 	  94.16 	  93.40 	  92.37 	  91.30 	  89.94 	  88.41 	  86.60 	  84.83 	  82.62 	  80.29 	  77.78 	  75.21 	  72.26
  17.00 	  92.31 	  93.14 	  93.90 	  94.41 	  94.77 	  94.82 	  94.69 	  94.36 	  93.80 	  92.97 	  91.87 	  90.72 	  89.25 	  87.61 	  85.67 	  83.76 	  81.40 	  78.91 	  76.22 	  73.46 	  70.32
  18.00 	  91.82 	  92.71 	  93.53 	  94.08 	  94.47 	  94.53 	  94.38 	  94.03 	  93.42 	  92.53 	  91.35 	  90.10 	  88.53 	  86.76 	  84.69 	  82.65 	  80.13 	  77.48 	  74.60 	  71.63 	  68.29
  19.00 	  91.31 	  92.25 	  93.14 	  93.73 	  94.15 	  94.22 	  94.06 	  93.68 	  93.02 	  92.07 	  90.80 	  89.46 	  87.77 	  85.88 	  83.66 	  81.48 	  78.80 	  75.98 	  72.90 	  69.73 	  66.18
  20.00 	  90.76 	  91.77 	  92.73 	  93.37 	  93.81 	  93.89 	  93.72 	  93.31 	  92.61 	  91.58 	  90.22 	  88.77 	  86.97 	  84.94 	  82.58 	  80.24 	  77.41 	  74.41 	  71.13 	  67.74 	  63.98
  21.00 	  90.18 	  91.26 	  92.29 	  92.98 	  93.46 	  93.54 	  93.37 	  92.92 	  92.16 	  91.06 	  89.60 	  88.04 	  86.11 	  83.94 	  81.43 	  78.94 	  75.94 	  72.76 	  69.27 	  65.65 	  61.67
  22.00 	  89.56 	  90.72 	  91.82 	  92.57 	  93.08 	  93.18 	  92.99 	  92.51 	  91.69 	  90.50 	  88.94 	  87.27 	  85.21 	  82.89 	  80.22 	  77.57 	  74.39 	  71.03 	  67.31 	  63.45 	  59.25
  23.00 	  88.91 	  90.14 	  91.33 	  92.13 	  92.68 	  92.79 	  92.59 	  92.07 	  91.19 	  89.92 	  88.25 	  86.45 	  84.25 	  81.78 	  78.94 	  76.12 	  72.77 	  69.22 	  65.27 	  61.16 	  56.73
  24.00 	  88.23 	  89.54 	  90.81 	  91.68 	  92.27 	  92.38 	  92.17 	  91.62 	  90.67 	  89.30 	  87.52 	  85.59 	  83.25 	  80.62 	  77.60 	  74.61 	  71.08 	  67.33 	  63.15 	  58.78 	  54.13
  25.00 	  87.51 	  88.91 	  90.27 	  91.20 	  91.83 	  91.96 	  91.73 	  91.14 	  90.12 	  88.66 	  86.76 	  84.70 	  82.20 	  79.40 	  76.21 	  73.03 	  69.32 	  65.38 	  60.96 	  56.33 	  51.46
  26.00 	  86.77 	  88.25 	  89.70 	  90.70 	  91.37 	  91.52 	  91.27 	  90.64 	  89.55 	  87.99 	  85.97 	  83.76 	  81.11 	  78.14 	  74.77 	  71.40 	  67.51 	  63.37 	  58.70 	  53.82 	  48.73
  27.00 	  85.99 	  87.56 	  89.11 	  90.19 	  90.90 	  91.06 	  90.80 	  90.12 	  88.95 	  87.29 	  85.15 	  82.79 	  79.98 	  76.84 	  73.28 	  69.73 	  65.64 	  61.31 	  56.40 	  51.25 	  45.95
  28.00 	  85.20 	  86.86 	  88.50 	  89.65 	  90.41 	  90.58 	  90.31 	  89.58 	  88.34 	  86.57 	  84.30 	  81.79 	  78.82 	  75.50 	  71.75 	  68.00 	  63.73 	  59.20 	  54.05 	  48.66 	  43.15
  29.00 	  84.37 	  86.13 	  87.88 	  89.10 	  89.90 	  90.09 	  89.80 	  89.03 	  87.71 	  85.83 	  83.43 	  80.76 	  77.62 	  74.12 	  70.18 	  66.24 	  61.77 	  57.05 	  51.67 	  46.03 	  40.33
  30.00 	  83.53 	  85.38 	  87.23 	  88.54 	  89.39 	  89.59 	  89.28 	  88.46 	  87.06 	  85.07 	  82.54 	  79.71 	  76.40 	  72.71 	  68.58 	  64.44 	  59.79 	  54.86 	  49.27 	  43.40 	  37.51
  31.00 	  82.66 	  84.61 	  86.57 	  87.96 	  88.85 	  89.08 	  88.75 	  87.88 	  86.40 	  84.30 	  81.62 	  78.63 	  75.15 	  71.27 	  66.95 	  62.62 	  57.77 	  52.65 	  46.85 	  40.76 	  34.71
  32.00 	  81.78 	  83.83 	  85.90 	  87.36 	  88.31 	  88.55 	  88.21 	  87.29 	  85.72 	  83.50 	  80.69 	  77.53 	  73.88 	  69.81 	  65.30 	  60.77 	  55.73 	  50.43 	  44.43 	  38.14 	  31.94
  33.00 	  80.89 	  83.03 	  85.21 	  86.76 	  87.76 	  88.02 	  87.66 	  86.68 	  85.03 	  82.69 	  79.74 	  76.42 	  72.59 	  68.34 	  63.62 	  58.90 	  53.68 	  48.19 	  42.01 	  35.54 	  29.21
  34.00 	  79.97 	  82.22 	  84.51 	  86.14 	  87.19 	  87.47 	  87.10 	  86.07 	  84.33 	  81.87 	  78.78 	  75.28 	  71.28 	  66.84 	  61.94 	  57.02 	  51.62 	  45.94 	  39.60 	  32.99 	  26.55
  35.00 	  79.05 	  81.40 	  83.80 	  85.52 	  86.62 	  86.92 	  86.53 	  85.44 	  83.61 	  81.04 	  77.80 	  74.14 	  69.96 	  65.34 	  60.24 	  55.13 	  49.55 	  43.70 	  37.22 	  30.48 	  23.96
  36.00 	  78.12 	  80.57 	  83.08 	  84.89 	  86.04 	  86.36 	  85.95 	  84.81 	  82.89 	  80.20 	  76.82 	  72.98 	  68.64 	  63.82 	  58.55 	  53.25 	  47.49 	  41.48 	  34.87 	  28.05 	  21.48
  37.00 	  77.17 	  79.73 	  82.35 	  84.25 	  85.45 	  85.79 	  85.36 	  84.17 	  82.16 	  79.35 	  75.83 	  71.82 	  67.30 	  62.31 	  56.85 	  51.37 	  45.43 	  39.26 	  32.57 	  25.69 	  19.10
  38.00 	  76.23 	  78.88 	  81.62 	  83.60 	  84.86 	  85.22 	  84.78 	  83.53 	  81.43 	  78.49 	  74.83 	  70.66 	  65.97 	  60.79 	  55.15 	  49.50 	  43.39 	  37.08 	  30.33 	  23.43 	  16.85
  39.00 	  75.28 	  78.03 	  80.88 	  82.95 	  84.26 	  84.64 	  84.18 	  82.88 	  80.69 	  77.63 	  73.83 	  69.49 	  64.64 	  59.28 	  53.47 	  47.64 	  41.38 	  34.93 	  28.15 	  21.27 	  14.75
  40.00 	  74.32 	  77.18 	  80.14 	  82.30 	  83.66 	  84.06 	  83.59 	  82.23 	  79.95 	  76.77 	  72.83 	  68.33 	  63.31 	  57.79 	  51.81 	  45.81 	  39.40 	  32.82 	  26.05 	  19.25 	  12.81
  41.00 	  73.37 	  76.33 	  79.39 	  81.64 	  83.06 	  83.48 	  82.99 	  81.58 	  79.21 	  75.91 	  71.83 	  67.17 	  61.99 	  56.30 	  50.16 	  44.02 	  37.45 	  30.77 	  24.04 	  17.36 	  11.06
  42.00 	  72.42 	  75.48 	  78.65 	  80.99 	  82.46 	  82.90 	  82.39 	  80.93 	  78.47 	  75.05 	  70.84 	  66.01 	  60.68 	  54.84 	  48.55 	  42.25 	  35.55 	  28.77 	  22.13 	  15.63 	   9.51
  43.00 	  71.48 	  74.64 	  77.91 	  80.33 	  81.86 	  82.32 	  81.80 	  80.28 	  77.74 	  74.20 	  69.86 	  64.87 	  59.40 	  53.40 	  46.97 	  40.54 	  33.70 	  26.84 	  20.33 	  14.07 	   8.17
  44.00 	  70.54 	  73.80 	  77.17 	  79.68 	  81.26 	  81.74 	  81.20 	  79.63 	  77.00 	  73.35 	  68.88 	  63.74 	  58.12 	  51.98 	  45.42 	  38.86 	  31.90 	  24.98 	  18.65 	  12.67 	   7.05
  45.00 	  69.61 	  72.96 	  76.43 	  79.02 	  80.65 	  81.16 	  80.61 	  78.98 	  76.27 	  72.51 	  67.91 	  62.63 	  56.87 	  50.59 	  43.90 	  37.23 	  30.16 	  23.19 	  17.07 	  11.44 	   6.13
  46.00 	  68.69 	  72.13 	  75.70 	  78.37 	  80.05 	  80.58 	  80.02 	  78.34 	  75.54 	  71.67 	  66.94 	  61.52 	  55.63 	  49.22 	  42.41 	  35.64 	  28.47 	  21.47 	  15.59 	  10.35 	   5.40
  47.00 	  67.76 	  71.30 	  74.96 	  77.72 	  79.45 	  80.00 	  79.43 	  77.69 	  74.81 	  70.83 	  65.99 	  60.42 	  54.41 	  47.88 	  40.96 	  34.09 	  26.83 	  19.82 	  14.22 	   9.41 	   4.84
  48.00 	  66.85 	  70.47 	  74.23 	  77.07 	  78.85 	  79.42 	  78.83 	  77.05 	  74.09 	  70.00 	  65.04 	  59.34 	  53.20 	  46.56 	  39.54 	  32.58 	  25.25 	  18.24 	  12.95 	   8.60 	   4.45
  49.00 	  65.94 	  69.65 	  73.50 	  76.42 	  78.25 	  78.84 	  78.24 	  76.40 	  73.36 	  69.17 	  64.10 	  58.26 	  52.01 	  45.26 	  38.14 	  31.12 	  23.72 	  16.73 	  11.78 	   7.92 	   4.21
  50.00 	  65.03 	  68.83 	  72.77 	  75.77 	  77.65 	  78.26 	  77.65 	  75.76 	  72.64 	  68.35 	  63.16 	  57.20 	  50.84 	  43.98 	  36.78 	  29.69 	  22.25 	  15.30 	  10.70 	   7.36 	   4.11
  51.00 	  64.13 	  68.02 	  72.05 	  75.11 	  77.05 	  77.68 	  77.06 	  75.12 	  71.92 	  67.53 	  62.23 	  56.15 	  49.68 	  42.73 	  35.45 	  28.31 	  20.83 	  13.93 	   9.71 	   6.91 	   4.13
  52.00 	  63.24 	  67.20 	  71.32 	  74.46 	  76.45 	  77.10 	  76.47 	  74.48 	  71.21 	  66.71 	  61.31 	  55.11 	  48.54 	  41.49 	  34.15 	  26.97 	  19.47 	  12.64 	   8.81 	   6.56 	   4.27
  53.00 	  62.35 	  66.40 	  70.59 	  73.81 	  75.85 	  76.52 	  75.88 	  73.84 	  70.49 	  65.90 	  60.39 	  54.08 	  47.41 	  40.28 	  32.88 	  25.66 	  18.16 	  11.42 	   8.00 	   6.31 	   4.51
  54.00 	  61.47 	  65.59 	  69.87 	  73.16 	  75.25 	  75.94 	  75.28 	  73.20 	  69.78 	  65.09 	  59.48 	  53.05 	  46.30 	  39.09 	  31.63 	  24.40 	  16.91 	  10.27 	   7.27 	   6.15 	   4.84
  55.00 	  60.59 	  64.79 	  69.15 	  72.51 	  74.65 	  75.36 	  74.69 	  72.56 	  69.07 	  64.29 	  58.58 	  52.04 	  45.20 	  37.93 	  30.42 	  23.18 	  15.72 	   9.20 	   6.62 	   6.06 	   5.24
  56.00 	  59.72 	  64.00 	  68.43 	  71.86 	  74.05 	  74.78 	  74.10 	  71.92 	  68.36 	  63.49 	  57.68 	  51.04 	  44.12 	  36.78 	  29.23 	  21.99 	  14.59 	   8.21 	   6.05 	   6.04 	   5.70
  57.00 	  58.86 	  63.20 	  67.71 	  71.21 	  73.45 	  74.19 	  73.50 	  71.28 	  67.65 	  62.69 	  56.79 	  50.06 	  43.05 	  35.65 	  28.07 	  20.85 	  13.52 	   7.29 	   5.55 	   6.08 	   6.20
  58.00 	  58.00 	  62.41 	  67.00 	  70.56 	  72.84 	  73.61 	  72.91 	  70.64 	  66.94 	  61.90 	  55.91 	  49.08 	  42.00 	  34.55 	  26.94 	  19.74 	  12.50 	   6.45 	   5.12 	   6.18 	   6.74
  59.00 	  57.14 	  61.63 	  66.28 	  69.91 	  72.24 	  73.02 	  72.31 	  70.00 	  66.23 	  61.11 	  55.03 	  48.11 	  40.97 	  33.47 	  25.84 	  18.68 	  11.55 	   5.69 	   4.76 	   6.31 	   7.28
  60.00 	  56.30 	  60.84 	  65.57 	  69.26 	  71.63 	  72.44 	  71.71 	  69.36 	  65.53 	  60.32 	  54.16 	  47.15 	  39.95 	  32.41 	  24.77 	  17.65 	  10.66 	   5.01 	   4.47 	   6.47 	   7.82
  61.00 	  55.46 	  60.06 	  64.86 	  68.61 	  71.03 	  71.85 	  71.11 	  68.72 	  64.82 	  59.54 	  53.30 	  46.21 	  38.94 	  31.36 	  23.72 	  16.66 	   9.83 	   4.41 	   4.24 	   6.65 	   8.35
  62.00 	  54.62 	  59.29 	  64.15 	  67.96 	  70.42 	  71.26 	  70.51 	  68.08 	  64.12 	  58.76 	  52.44 	  45.27 	  37.95 	  30.34 	  22.70 	  15.71 	   9.06 	   3.90 	   4.06 	   6.85 	   8.84
  63.00 	  53.79 	  58.52 	  63.44 	  67.31 	  69.81 	  70.67 	  69.91 	  67.44 	  63.42 	  57.99 	  51.59 	  44.35 	  36.98 	  29.35 	  21.71 	  14.80 	   8.37 	   3.47 	   3.94 	   7.04 	   9.27
  64.00 	  52.97 	  57.75 	  62.74 	  66.65 	  69.20 	  70.07 	  69.31 	  66.80 	  62.72 	  57.22 	  50.74 	  43.43 	  36.02 	  28.37 	  20.74 	  13.93 	   7.73 	   3.13 	   3.88 	   7.22 	   9.64
Defocus Intensity Data: Horiz	Vert
  18.45	  17.74
  19.59	  18.66
  20.80	  19.65
  21.73	  20.49
  22.35	  21.00
  22.55	  21.19
  22.36	  20.98
  21.72	  20.45
  20.69	  19.57
  19.41	  18.51
  17.90	  17.25
  16.23	  15.79
  14.66	  14.38
  13.06	  12.99
  11.58	  11.66
  10.30	  10.44
   9.21	   9.33
   8.44	   8.33
   7.76	   7.48
   7.05	   6.80
   6.35	   6.19
Defocus FWHM Data: Horiz	Vert
   7.03	   7.31
   6.67	   7.02
   6.37	   6.75
   6.17	   6.56
   6.06	   6.44
   6.01	   6.41
   6.04	   6.44
   6.14	   6.55
   6.34	   6.78
   6.65	   7.07
   7.12	   7.52
   7.85	   8.17
   8.83	   9.03
  10.09	  10.15
  11.45	  11.40
  12.77	  12.74
  14.18	  14.15
  15.50	  15.74
  16.86	  17.33
  18.31	  18.82
  20.00	  20.36
Defocus Strehl Ratio Data: Horiz	Vert
   0.00	   0.00
   0.00	   0.00
   0.00	   0.00
   0.00	   0.00
   0.00	   0.00
   0.00	   0.00
   0.00	   0.00
   0.00	   0.00
   0.00	   0.00
   0.00	   0.00
   0.00	   0.00
   0.00	   0.00
   0.00	   0.00
   0.00	   0.00
   0.00	   0.00
   0.00	   0.00
   0.00	   0.00
   0.00	   0.00
   0.00	   0.00
   0.00	   0.00
   0.00	   0.00
Defocus Position
 -50.00
 -40.01
 -30.00
 -20.01
 -10.01
   0.00
  10.00
  20.00
  30.00
  40.00
  50.00
  60.00
  70.00
  80.00
  90.00
 100.00
 110.00
 120.00
 130.00
 140.00
 150.00
