THRUFOCUS  5.10 
File:
Date:    
Time:    
Lens Name:    
Lens ID:    
Operator:    
Focal Length:      24.56
F#:       5.00
Defocus:       0.00

Display Information

Line Start:        0
View:    Defocus
View Horizontal or Vertical:    Both
Display Diffraction Limit:    No
Display Lens Specification Curve:    No
Full Scale Display Frequency:      40.00

Scan Type:    Both
TestMode:    Infinite
Object Type:    Pinhole
Object Size (microns):     102.00
Field Angle:       0.00
Magnification of Lens Under Test:       1.00
Relay Lens Magnification:      20.17
Collimator Focal Length (mm) :     356.10
Typical WaveLength:     546.00

Focusing Lens Focal Length (mm) :      10.00
Entrance Pupil Diameter (mm) :      20.00
Camera Name:    20x 0.40NA
CCD MTF Horizontal Vertical
CCD Pixel Spacing (microns) :       7.49	    7.50
Combined Maximum Spatial Frequency:    1346.10	 1344.67
Frame Grabber Size:      648	   483
Active Pixel Size:      648	   483
Trace Length Used:      128
Trace Width Used:       64
Position X:      289
Position Y:      230
Number of Frames:       10
Comments:  



Thru-Focus Information

Start Position:    -50.00
Final Position:    150.00
Number of Planes:       21
Defocus Frequency:     40.00
Strehl From Freq:      5.00
Strehl To Freq:    150.00
Spline Fit Is Enabled?:   0
Number of Points Inserted In Spline Fit:        3
MTF Algorithm (0-FFT; 1-FFT/wABC; 2-FFT/wBeta; 3-Sin-Cos FT; 4-Sin-Cos FT/wABC):        0
FFT with Spline Fitting?: 1
Number of Points in FFT Transformation with Fitting:       65
Knife Edge Scan Used?:   0
Focus Motor Name: Image Z
Focus Motor Step Unit: microns
Focus Motor Position:      0.0
Camera Binning Factor:         1
Camera Gamma Used:    1.0000

Horizontal Freq (lp/mm)  MTF @

Horizontal Freq (lp/mm)  MTF @
   0.00 	 100.00 	 100.00 	 100.00 	 100.00 	 100.00 	 100.00 	 100.00 	 100.00 	 100.00 	 100.00 	 100.00 	 100.00 	 100.00 	 100.00 	 100.00 	 100.00 	 100.00 	 100.00 	 100.00 	 100.00 	 100.00
   1.00 	  99.58 	  99.61 	  99.62 	  99.61 	  99.60 	  99.57 	  99.53 	  99.48 	  99.42 	  99.34 	  99.25 	  99.15 	  99.04 	  98.92 	  98.79 	  98.65 	  98.50 	  98.33 	  98.17 	  97.98 	  97.77
   2.00 	  99.19 	  99.24 	  99.25 	  99.24 	  99.23 	  99.17 	  99.09 	  98.99 	  98.87 	  98.71 	  98.54 	  98.33 	  98.12 	  97.88 	  97.62 	  97.34 	  97.06 	  96.72 	  96.39 	  96.02 	  95.59
   3.00 	  98.82 	  98.89 	  98.92 	  98.89 	  98.88 	  98.80 	  98.67 	  98.53 	  98.35 	  98.12 	  97.85 	  97.56 	  97.24 	  96.88 	  96.50 	  96.07 	  95.67 	  95.17 	  94.67 	  94.11 	  93.45
   4.00 	  98.47 	  98.57 	  98.60 	  98.56 	  98.55 	  98.44 	  98.28 	  98.09 	  97.86 	  97.55 	  97.20 	  96.81 	  96.39 	  95.92 	  95.41 	  94.84 	  94.31 	  93.65 	  92.99 	  92.24 	  91.34
   5.00 	  98.13 	  98.26 	  98.29 	  98.25 	  98.24 	  98.10 	  97.90 	  97.67 	  97.38 	  97.00 	  96.58 	  96.09 	  95.57 	  94.98 	  94.35 	  93.64 	  92.99 	  92.17 	  91.35 	  90.41 	  89.26
   6.00 	  97.82 	  97.97 	  98.01 	  97.95 	  97.94 	  97.78 	  97.54 	  97.26 	  96.93 	  96.47 	  95.97 	  95.39 	  94.77 	  94.07 	  93.31 	  92.46 	  91.69 	  90.71 	  89.73 	  88.61 	  87.21
   7.00 	  97.51 	  97.69 	  97.73 	  97.67 	  97.66 	  97.47 	  97.19 	  96.88 	  96.49 	  95.96 	  95.37 	  94.70 	  93.98 	  93.17 	  92.29 	  91.30 	  90.40 	  89.27 	  88.14 	  86.82 	  85.16
   8.00 	  97.22 	  97.43 	  97.47 	  97.40 	  97.39 	  97.17 	  96.86 	  96.50 	  96.06 	  95.46 	  94.79 	  94.03 	  93.21 	  92.28 	  91.28 	  90.15 	  89.13 	  87.84 	  86.54 	  85.04 	  83.12
   9.00 	  96.94 	  97.17 	  97.22 	  97.14 	  97.12 	  96.89 	  96.53 	  96.13 	  95.63 	  94.97 	  94.22 	  93.36 	  92.44 	  91.40 	  90.27 	  89.00 	  87.86 	  86.41 	  84.95 	  83.26 	  81.09
  10.00 	  96.67 	  96.92 	  96.98 	  96.89 	  96.87 	  96.61 	  96.21 	  95.77 	  95.22 	  94.47 	  93.64 	  92.69 	  91.67 	  90.51 	  89.25 	  87.84 	  86.58 	  84.97 	  83.35 	  81.47 	  79.04
  11.00 	  96.40 	  96.67 	  96.74 	  96.64 	  96.62 	  96.33 	  95.90 	  95.41 	  94.80 	  93.98 	  93.07 	  92.02 	  90.89 	  89.62 	  88.23 	  86.68 	  85.28 	  83.51 	  81.73 	  79.66 	  76.98
  12.00 	  96.13 	  96.43 	  96.51 	  96.39 	  96.38 	  96.06 	  95.58 	  95.04 	  94.38 	  93.49 	  92.48 	  91.34 	  90.11 	  88.71 	  87.19 	  85.49 	  83.97 	  82.03 	  80.08 	  77.82 	  74.91
  13.00 	  95.86 	  96.19 	  96.27 	  96.15 	  96.13 	  95.78 	  95.27 	  94.68 	  93.96 	  92.98 	  91.89 	  90.64 	  89.30 	  87.78 	  86.14 	  84.29 	  82.63 	  80.51 	  78.40 	  75.94 	  72.80
  14.00 	  95.59 	  95.95 	  96.04 	  95.91 	  95.88 	  95.51 	  94.95 	  94.31 	  93.52 	  92.46 	  91.28 	  89.92 	  88.47 	  86.83 	  85.05 	  83.06 	  81.25 	  78.96 	  76.67 	  74.02 	  70.66
  15.00 	  95.32 	  95.71 	  95.80 	  95.67 	  95.63 	  95.23 	  94.62 	  93.93 	  93.07 	  91.93 	  90.64 	  89.18 	  87.62 	  85.84 	  83.93 	  81.78 	  79.82 	  77.35 	  74.88 	  72.04 	  68.48
  16.00 	  95.04 	  95.46 	  95.56 	  95.42 	  95.38 	  94.94 	  94.28 	  93.53 	  92.61 	  91.37 	  89.99 	  88.41 	  86.72 	  84.82 	  82.77 	  80.47 	  78.34 	  75.68 	  73.03 	  69.99 	  66.26
  17.00 	  94.76 	  95.20 	  95.32 	  95.16 	  95.11 	  94.64 	  93.93 	  93.12 	  92.12 	  90.79 	  89.30 	  87.60 	  85.79 	  83.75 	  81.56 	  79.11 	  76.80 	  73.94 	  71.11 	  67.87 	  63.97
  18.00 	  94.46 	  94.93 	  95.06 	  94.90 	  94.84 	  94.33 	  93.57 	  92.69 	  91.61 	  90.18 	  88.58 	  86.76 	  84.82 	  82.63 	  80.30 	  77.68 	  75.19 	  72.13 	  69.10 	  65.67 	  61.63
  19.00 	  94.15 	  94.65 	  94.80 	  94.62 	  94.55 	  94.00 	  93.19 	  92.24 	  91.07 	  89.53 	  87.81 	  85.86 	  83.79 	  81.45 	  78.97 	  76.20 	  73.50 	  70.22 	  67.00 	  63.37 	  59.21
  20.00 	  93.82 	  94.36 	  94.52 	  94.34 	  94.25 	  93.66 	  92.78 	  91.76 	  90.51 	  88.85 	  87.01 	  84.92 	  82.70 	  80.21 	  77.58 	  74.64 	  71.72 	  68.22 	  64.80 	  60.97 	  56.71
  21.00 	  93.48 	  94.05 	  94.22 	  94.03 	  93.93 	  93.30 	  92.35 	  91.26 	  89.90 	  88.13 	  86.15 	  83.91 	  81.55 	  78.90 	  76.11 	  73.01 	  69.85 	  66.12 	  62.48 	  58.45 	  54.13
  22.00 	  93.11 	  93.72 	  93.91 	  93.72 	  93.60 	  92.92 	  91.90 	  90.72 	  89.26 	  87.36 	  85.24 	  82.85 	  80.32 	  77.52 	  74.57 	  71.29 	  67.88 	  63.90 	  60.04 	  55.81 	  51.46
  23.00 	  92.73 	  93.37 	  93.58 	  93.38 	  93.24 	  92.51 	  91.42 	  90.15 	  88.58 	  86.54 	  84.27 	  81.73 	  79.04 	  76.06 	  72.94 	  69.49 	  65.81 	  61.58 	  57.49 	  53.07 	  48.72
  24.00 	  92.33 	  93.01 	  93.24 	  93.03 	  92.86 	  92.08 	  90.92 	  89.55 	  87.86 	  85.69 	  83.26 	  80.55 	  77.69 	  74.53 	  71.25 	  67.61 	  63.66 	  59.17 	  54.85 	  50.23 	  45.90
  25.00 	  91.90 	  92.63 	  92.88 	  92.66 	  92.47 	  91.64 	  90.39 	  88.93 	  87.11 	  84.79 	  82.20 	  79.31 	  76.28 	  72.94 	  69.49 	  65.67 	  61.43 	  56.67 	  52.13 	  47.31 	  43.04
  26.00 	  91.47 	  92.23 	  92.51 	  92.29 	  92.06 	  91.17 	  89.84 	  88.27 	  86.33 	  83.86 	  81.10 	  78.03 	  74.82 	  71.29 	  67.67 	  63.66 	  59.14 	  54.11 	  49.34 	  44.34 	  40.14
  27.00 	  91.02 	  91.82 	  92.12 	  91.89 	  91.64 	  90.69 	  89.28 	  87.60 	  85.52 	  82.89 	  79.96 	  76.71 	  73.31 	  69.59 	  65.79 	  61.60 	  56.79 	  51.50 	  46.50 	  41.32 	  37.22
  28.00 	  90.55 	  91.39 	  91.72 	  91.49 	  91.20 	  90.19 	  88.69 	  86.90 	  84.69 	  81.89 	  78.79 	  75.34 	  71.75 	  67.84 	  63.86 	  59.49 	  54.39 	  48.85 	  43.63 	  38.28 	  34.30
  29.00 	  90.07 	  90.95 	  91.31 	  91.07 	  90.75 	  89.68 	  88.08 	  86.18 	  83.82 	  80.86 	  77.58 	  73.94 	  70.16 	  66.06 	  61.90 	  57.34 	  51.96 	  46.17 	  40.75 	  35.23 	  31.39
  30.00 	  89.57 	  90.50 	  90.89 	  90.64 	  90.29 	  89.15 	  87.46 	  85.44 	  82.94 	  79.80 	  76.34 	  72.50 	  68.53 	  64.23 	  59.89 	  55.15 	  49.50 	  43.48 	  37.85 	  32.20 	  28.51
  31.00 	  89.07 	  90.04 	  90.45 	  90.21 	  89.82 	  88.61 	  86.83 	  84.68 	  82.03 	  78.72 	  75.07 	  71.04 	  66.88 	  62.38 	  57.85 	  52.92 	  47.02 	  40.78 	  34.98 	  29.19 	  25.67
  32.00 	  88.55 	  89.57 	  90.01 	  89.76 	  89.33 	  88.06 	  86.17 	  83.91 	  81.10 	  77.62 	  73.78 	  69.55 	  65.19 	  60.50 	  55.79 	  50.68 	  44.54 	  38.10 	  32.13 	  26.23 	  22.89
  33.00 	  88.03 	  89.09 	  89.56 	  89.30 	  88.84 	  87.50 	  85.51 	  83.12 	  80.16 	  76.50 	  72.47 	  68.04 	  63.49 	  58.60 	  53.70 	  48.41 	  42.06 	  35.45 	  29.34 	  23.33 	  20.19
  34.00 	  87.50 	  88.60 	  89.10 	  88.84 	  88.33 	  86.93 	  84.84 	  82.32 	  79.20 	  75.36 	  71.14 	  66.51 	  61.77 	  56.68 	  51.60 	  46.13 	  39.59 	  32.84 	  26.60 	  20.52 	  17.58
  35.00 	  86.96 	  88.11 	  88.64 	  88.37 	  87.82 	  86.34 	  84.15 	  81.50 	  78.23 	  74.21 	  69.79 	  64.96 	  60.04 	  54.76 	  49.49 	  43.85 	  37.16 	  30.28 	  23.95 	  17.81 	  15.08
  36.00 	  86.41 	  87.61 	  88.17 	  87.90 	  87.30 	  85.75 	  83.46 	  80.68 	  77.24 	  73.05 	  68.44 	  63.41 	  58.30 	  52.83 	  47.38 	  41.58 	  34.76 	  27.80 	  21.40 	  15.23 	  12.71
  37.00 	  85.86 	  87.10 	  87.69 	  87.42 	  86.78 	  85.16 	  82.76 	  79.85 	  76.25 	  71.88 	  67.08 	  61.86 	  56.56 	  50.91 	  45.28 	  39.31 	  32.40 	  25.40 	  18.96 	  12.79 	  10.49
  38.00 	  85.30 	  86.59 	  87.21 	  86.93 	  86.25 	  84.56 	  82.05 	  79.01 	  75.26 	  70.70 	  65.72 	  60.30 	  54.83 	  49.00 	  43.19 	  37.05 	  30.11 	  23.10 	  16.66 	  10.51 	   8.44
  39.00 	  84.74 	  86.08 	  86.73 	  86.44 	  85.72 	  83.95 	  81.34 	  78.17 	  74.26 	  69.53 	  64.35 	  58.75 	  53.10 	  47.10 	  41.11 	  34.83 	  27.89 	  20.92 	  14.52 	   8.43 	   6.56
  40.00 	  84.18 	  85.56 	  86.25 	  85.95 	  85.18 	  83.34 	  80.63 	  77.32 	  73.25 	  68.35 	  62.99 	  57.20 	  51.39 	  45.22 	  39.06 	  32.63 	  25.76 	  18.87 	  12.55 	   6.55 	   4.90
  41.00 	  83.62 	  85.05 	  85.76 	  85.46 	  84.65 	  82.73 	  79.92 	  76.47 	  72.25 	  67.18 	  61.64 	  55.67 	  49.70 	  43.38 	  37.03 	  30.47 	  23.72 	  16.97 	  10.77 	   4.90 	   3.46
  42.00 	  83.06 	  84.53 	  85.27 	  84.97 	  84.11 	  82.12 	  79.20 	  75.63 	  71.25 	  66.01 	  60.30 	  54.16 	  48.04 	  41.56 	  35.05 	  28.36 	  21.79 	  15.24 	   9.21 	   3.50 	   2.26
  43.00 	  82.50 	  84.01 	  84.79 	  84.48 	  83.57 	  81.51 	  78.49 	  74.79 	  70.26 	  64.85 	  58.97 	  52.66 	  46.41 	  39.79 	  33.11 	  26.31 	  19.98 	  13.69 	   7.89 	   2.38 	   1.33
  44.00 	  81.94 	  83.50 	  84.30 	  83.98 	  83.04 	  80.90 	  77.78 	  73.95 	  69.27 	  63.70 	  57.66 	  51.19 	  44.81 	  38.06 	  31.22 	  24.31 	  18.29 	  12.32 	   6.79 	   1.52 	   0.64
  45.00 	  81.39 	  82.99 	  83.81 	  83.49 	  82.50 	  80.29 	  77.07 	  73.11 	  68.29 	  62.57 	  56.36 	  49.75 	  43.24 	  36.37 	  29.38 	  22.37 	  16.72 	  11.12 	   5.90 	   0.90 	   0.20
  46.00 	  80.83 	  82.47 	  83.33 	  83.00 	  81.96 	  79.68 	  76.36 	  72.28 	  67.31 	  61.44 	  55.08 	  48.32 	  41.70 	  34.72 	  27.58 	  20.49 	  15.26 	  10.08 	   5.21 	   0.52 	  -0.02
  47.00 	  80.28 	  81.96 	  82.84 	  82.51 	  81.43 	  79.07 	  75.66 	  71.45 	  66.34 	  60.32 	  53.82 	  46.92 	  40.20 	  33.11 	  25.84 	  18.67 	  13.91 	   9.19 	   4.71 	   0.36 	  -0.04
  48.00 	  79.73 	  81.45 	  82.36 	  82.02 	  80.89 	  78.47 	  74.96 	  70.62 	  65.38 	  59.21 	  52.56 	  45.54 	  38.72 	  31.54 	  24.15 	  16.92 	  12.67 	   8.45 	   4.39 	   0.39 	   0.12
  49.00 	  79.18 	  80.94 	  81.87 	  81.52 	  80.36 	  77.86 	  74.25 	  69.80 	  64.42 	  58.11 	  51.33 	  44.18 	  37.27 	  30.01 	  22.51 	  15.24 	  11.53 	   7.84 	   4.23 	   0.60 	   0.46
  50.00 	  78.63 	  80.43 	  81.39 	  81.03 	  79.82 	  77.25 	  73.55 	  68.98 	  63.47 	  57.03 	  50.11 	  42.84 	  35.85 	  28.52 	  20.93 	  13.63 	  10.50 	   7.36 	   4.21 	   0.98 	   0.95
  51.00 	  78.08 	  79.92 	  80.90 	  80.54 	  79.29 	  76.65 	  72.85 	  68.16 	  62.52 	  55.95 	  48.90 	  41.53 	  34.46 	  27.07 	  19.40 	  12.09 	   9.56 	   6.99 	   4.33 	   1.50 	   1.57
  52.00 	  77.53 	  79.41 	  80.42 	  80.05 	  78.75 	  76.04 	  72.16 	  67.35 	  61.58 	  54.88 	  47.71 	  40.24 	  33.10 	  25.66 	  17.93 	  10.62 	   8.71 	   6.74 	   4.57 	   2.15 	   2.31
  53.00 	  76.99 	  78.91 	  79.93 	  79.55 	  78.22 	  75.43 	  71.46 	  66.54 	  60.65 	  53.82 	  46.54 	  38.97 	  31.77 	  24.29 	  16.52 	   9.24 	   7.95 	   6.58 	   4.91 	   2.91 	   3.14
  54.00 	  76.44 	  78.40 	  79.45 	  79.06 	  77.69 	  74.83 	  70.77 	  65.73 	  59.72 	  52.77 	  45.38 	  37.72 	  30.46 	  22.96 	  15.17 	   7.93 	   7.28 	   6.51 	   5.35 	   3.76 	   4.05
  55.00 	  75.89 	  77.89 	  78.96 	  78.57 	  77.15 	  74.23 	  70.08 	  64.92 	  58.79 	  51.73 	  44.23 	  36.49 	  29.19 	  21.67 	  13.88 	   6.71 	   6.69 	   6.52 	   5.86 	   4.68 	   5.02
  56.00 	  75.35 	  77.38 	  78.48 	  78.07 	  76.61 	  73.62 	  69.39 	  64.12 	  57.88 	  50.70 	  43.10 	  35.28 	  27.94 	  20.41 	  12.66 	   5.57 	   6.18 	   6.60 	   6.43 	   5.65 	   6.03
  57.00 	  74.81 	  76.88 	  77.99 	  77.58 	  76.08 	  73.02 	  68.70 	  63.33 	  56.97 	  49.68 	  41.99 	  34.10 	  26.71 	  19.20 	  11.51 	   4.52 	   5.75 	   6.74 	   7.04 	   6.65 	   7.06
  58.00 	  74.26 	  76.37 	  77.51 	  77.08 	  75.54 	  72.42 	  68.01 	  62.53 	  56.06 	  48.67 	  40.89 	  32.94 	  25.51 	  18.02 	  10.43 	   3.57 	   5.39 	   6.93 	   7.69 	   7.65 	   8.07
  59.00 	  73.72 	  75.86 	  77.02 	  76.58 	  75.01 	  71.81 	  67.32 	  61.74 	  55.17 	  47.68 	  39.81 	  31.80 	  24.34 	  16.89 	   9.42 	   2.72 	   5.10 	   7.16 	   8.34 	   8.65 	   9.07
  60.00 	  73.17 	  75.35 	  76.53 	  76.09 	  74.47 	  71.21 	  66.64 	  60.96 	  54.28 	  46.69 	  38.74 	  30.68 	  23.20 	  15.79 	   8.48 	   1.96 	   4.87 	   7.41 	   8.98 	   9.61 	  10.01
  61.00 	  72.63 	  74.84 	  76.04 	  75.59 	  73.93 	  70.61 	  65.96 	  60.18 	  53.39 	  45.71 	  37.69 	  29.58 	  22.08 	  14.73 	   7.62 	   1.31 	   4.70 	   7.68 	   9.61 	  10.51 	  10.88
  62.00 	  72.09 	  74.34 	  75.55 	  75.09 	  73.40 	  70.01 	  65.28 	  59.40 	  52.52 	  44.74 	  36.66 	  28.51 	  20.98 	  13.72 	   6.85 	   0.77 	   4.59 	   7.95 	  10.18 	  11.32 	  11.65
  63.00 	  71.54 	  73.83 	  75.06 	  74.59 	  72.86 	  69.41 	  64.60 	  58.63 	  51.65 	  43.79 	  35.64 	  27.46 	  19.91 	  12.74 	   6.15 	   0.35 	   4.53 	   8.21 	  10.70 	  12.03 	  12.29
  64.00 	  71.00 	  73.32 	  74.57 	  74.09 	  72.32 	  68.81 	  63.92 	  57.86 	  50.79 	  42.85 	  34.64 	  26.43 	  18.87 	  11.80 	   5.54 	   0.04 	   4.52 	   8.45 	  11.14 	  12.61 	  12.79

Vertical Freq (lp/mm)  MTF @
   0.00 	 100.00 	 100.00 	 100.00 	 100.00 	 100.00 	 100.00 	 100.00 	 100.00 	 100.00 	 100.00 	 100.00 	 100.00 	 100.00 	 100.00 	 100.00 	 100.00 	 100.00 	 100.00 	 100.00 	 100.00 	 100.00
   1.00 	  99.57 	  99.60 	  99.61 	  99.60 	  99.60 	  99.57 	  99.52 	  99.47 	  99.41 	  99.33 	  99.24 	  99.13 	  99.02 	  98.90 	  98.78 	  98.63 	  98.48 	  98.31 	  98.14 	  97.95 	  97.74
   2.00 	  99.17 	  99.22 	  99.24 	  99.23 	  99.22 	  99.16 	  99.08 	  98.98 	  98.85 	  98.70 	  98.52 	  98.31 	  98.09 	  97.85 	  97.60 	  97.31 	  97.01 	  96.68 	  96.34 	  95.95 	  95.52
   3.00 	  98.79 	  98.87 	  98.90 	  98.88 	  98.87 	  98.77 	  98.65 	  98.51 	  98.32 	  98.09 	  97.83 	  97.52 	  97.20 	  96.84 	  96.47 	  96.03 	  95.59 	  95.10 	  94.58 	  94.00 	  93.34
   4.00 	  98.43 	  98.54 	  98.57 	  98.55 	  98.53 	  98.41 	  98.25 	  98.06 	  97.81 	  97.52 	  97.16 	  96.75 	  96.33 	  95.87 	  95.37 	  94.78 	  94.20 	  93.56 	  92.87 	  92.10 	  91.19
   5.00 	  98.09 	  98.22 	  98.27 	  98.24 	  98.22 	  98.06 	  97.87 	  97.63 	  97.32 	  96.96 	  96.53 	  96.02 	  95.49 	  94.92 	  94.29 	  93.57 	  92.84 	  92.04 	  91.19 	  90.22 	  89.07
   6.00 	  97.77 	  97.92 	  97.97 	  97.94 	  97.92 	  97.73 	  97.50 	  97.22 	  96.86 	  96.43 	  95.91 	  95.30 	  94.68 	  93.99 	  93.24 	  92.37 	  91.51 	  90.56 	  89.54 	  88.37 	  86.96
   7.00 	  97.45 	  97.64 	  97.70 	  97.66 	  97.63 	  97.42 	  97.15 	  96.83 	  96.40 	  95.91 	  95.30 	  94.60 	  93.87 	  93.07 	  92.21 	  91.20 	  90.19 	  89.09 	  87.90 	  86.54 	  84.87
   8.00 	  97.15 	  97.36 	  97.43 	  97.38 	  97.35 	  97.11 	  96.81 	  96.44 	  95.96 	  95.40 	  94.71 	  93.91 	  93.08 	  92.17 	  91.19 	  90.03 	  88.89 	  87.63 	  86.27 	  84.71 	  82.78
   9.00 	  96.86 	  97.10 	  97.17 	  97.12 	  97.09 	  96.82 	  96.47 	  96.07 	  95.53 	  94.89 	  94.12 	  93.22 	  92.30 	  91.27 	  90.16 	  88.86 	  87.58 	  86.17 	  84.64 	  82.88 	  80.69
  10.00 	  96.58 	  96.84 	  96.92 	  96.87 	  96.83 	  96.53 	  96.15 	  95.69 	  95.10 	  94.39 	  93.54 	  92.54 	  91.51 	  90.37 	  89.14 	  87.69 	  86.27 	  84.70 	  83.00 	  81.05 	  78.60
  11.00 	  96.30 	  96.59 	  96.68 	  96.62 	  96.58 	  96.24 	  95.82 	  95.33 	  94.67 	  93.89 	  92.95 	  91.85 	  90.72 	  89.46 	  88.11 	  86.51 	  84.94 	  83.22 	  81.35 	  79.19 	  76.50
  12.00 	  96.02 	  96.34 	  96.44 	  96.37 	  96.33 	  95.96 	  95.50 	  94.96 	  94.24 	  93.39 	  92.36 	  91.15 	  89.91 	  88.54 	  87.06 	  85.32 	  83.60 	  81.71 	  79.66 	  77.31 	  74.38
  13.00 	  95.75 	  96.09 	  96.20 	  96.13 	  96.08 	  95.68 	  95.18 	  94.58 	  93.80 	  92.87 	  91.75 	  90.44 	  89.09 	  87.60 	  85.99 	  84.10 	  82.23 	  80.17 	  77.95 	  75.40 	  72.24
  14.00 	  95.47 	  95.84 	  95.96 	  95.88 	  95.82 	  95.40 	  94.85 	  94.21 	  93.35 	  92.35 	  91.13 	  89.71 	  88.25 	  86.63 	  84.89 	  82.84 	  80.82 	  78.59 	  76.19 	  73.44 	  70.07
  15.00 	  95.19 	  95.59 	  95.72 	  95.63 	  95.57 	  95.11 	  94.52 	  93.82 	  92.89 	  91.81 	  90.49 	  88.96 	  87.38 	  85.64 	  83.76 	  81.56 	  79.37 	  76.96 	  74.38 	  71.44 	  67.86
  16.00 	  94.90 	  95.33 	  95.47 	  95.38 	  95.31 	  94.81 	  94.18 	  93.42 	  92.42 	  91.24 	  89.82 	  88.17 	  86.47 	  84.60 	  82.58 	  80.22 	  77.87 	  75.28 	  72.51 	  69.37 	  65.61
  17.00 	  94.61 	  95.06 	  95.22 	  95.12 	  95.04 	  94.51 	  93.82 	  93.00 	  91.92 	  90.66 	  89.13 	  87.36 	  85.53 	  83.52 	  81.36 	  78.84 	  76.31 	  73.53 	  70.57 	  67.23 	  63.32
  18.00 	  94.30 	  94.78 	  94.95 	  94.85 	  94.76 	  94.19 	  93.45 	  92.56 	  91.40 	  90.04 	  88.40 	  86.50 	  84.54 	  82.39 	  80.08 	  77.40 	  74.69 	  71.71 	  68.55 	  65.02 	  60.97
  19.00 	  93.98 	  94.49 	  94.68 	  94.57 	  94.47 	  93.86 	  93.06 	  92.11 	  90.86 	  89.39 	  87.63 	  85.60 	  83.50 	  81.20 	  78.75 	  75.90 	  72.99 	  69.80 	  66.44 	  62.72 	  58.55
  20.00 	  93.65 	  94.19 	  94.39 	  94.28 	  94.16 	  93.51 	  92.65 	  91.62 	  90.28 	  88.71 	  86.81 	  84.64 	  82.40 	  79.95 	  77.34 	  74.32 	  71.21 	  67.80 	  64.23 	  60.32 	  56.07
  21.00 	  93.29 	  93.87 	  94.08 	  93.97 	  93.83 	  93.14 	  92.22 	  91.11 	  89.67 	  87.98 	  85.95 	  83.64 	  81.24 	  78.62 	  75.86 	  72.66 	  69.34 	  65.70 	  61.92 	  57.82 	  53.52
  22.00 	  92.92 	  93.52 	  93.76 	  93.64 	  93.49 	  92.75 	  91.76 	  90.57 	  89.02 	  87.21 	  85.03 	  82.57 	  80.01 	  77.23 	  74.30 	  70.92 	  67.37 	  63.49 	  59.50 	  55.21 	  50.89
  23.00 	  92.52 	  93.16 	  93.42 	  93.30 	  93.12 	  92.34 	  91.28 	  89.99 	  88.34 	  86.39 	  84.07 	  81.44 	  78.71 	  75.76 	  72.66 	  69.09 	  65.32 	  61.19 	  56.97 	  52.49 	  48.19
  24.00 	  92.11 	  92.79 	  93.06 	  92.94 	  92.74 	  91.91 	  90.77 	  89.39 	  87.62 	  85.54 	  83.05 	  80.26 	  77.36 	  74.22 	  70.95 	  67.20 	  63.18 	  58.80 	  54.36 	  49.70 	  45.44
  25.00 	  91.68 	  92.39 	  92.69 	  92.56 	  92.34 	  91.46 	  90.24 	  88.76 	  86.87 	  84.64 	  81.99 	  79.04 	  75.95 	  72.63 	  69.18 	  65.23 	  60.98 	  56.33 	  51.67 	  46.83 	  42.64
  26.00 	  91.24 	  91.98 	  92.31 	  92.17 	  91.93 	  90.99 	  89.69 	  88.11 	  86.09 	  83.71 	  80.89 	  77.76 	  74.49 	  70.98 	  67.35 	  63.21 	  58.71 	  53.81 	  48.92 	  43.92 	  39.82
  27.00 	  90.78 	  91.56 	  91.91 	  91.77 	  91.50 	  90.51 	  89.12 	  87.43 	  85.28 	  82.75 	  79.76 	  76.44 	  72.98 	  69.28 	  65.46 	  61.13 	  56.38 	  51.23 	  46.12 	  40.96 	  36.98
  28.00 	  90.31 	  91.12 	  91.50 	  91.36 	  91.06 	  90.01 	  88.54 	  86.73 	  84.45 	  81.76 	  78.58 	  75.09 	  71.43 	  67.53 	  63.53 	  59.00 	  54.02 	  48.61 	  43.30 	  37.98 	  34.15
  29.00 	  89.82 	  90.67 	  91.08 	  90.93 	  90.60 	  89.50 	  87.93 	  86.01 	  83.59 	  80.73 	  77.38 	  73.69 	  69.84 	  65.74 	  61.56 	  56.83 	  51.61 	  45.97 	  40.46 	  35.00 	  31.33
  30.00 	  89.33 	  90.21 	  90.64 	  90.49 	  90.13 	  88.97 	  87.31 	  85.27 	  82.71 	  79.69 	  76.14 	  72.27 	  68.22 	  63.92 	  59.55 	  54.63 	  49.19 	  43.31 	  37.61 	  32.04 	  28.54
  31.00 	  88.82 	  89.75 	  90.20 	  90.05 	  89.65 	  88.43 	  86.68 	  84.52 	  81.81 	  78.62 	  74.89 	  70.82 	  66.57 	  62.08 	  57.51 	  52.41 	  46.74 	  40.65 	  34.78 	  29.10 	  25.79
  32.00 	  88.30 	  89.27 	  89.75 	  89.60 	  89.17 	  87.88 	  86.03 	  83.75 	  80.89 	  77.53 	  73.60 	  69.35 	  64.90 	  60.21 	  55.45 	  50.16 	  44.29 	  38.01 	  31.99 	  26.20 	  23.10
  33.00 	  87.78 	  88.78 	  89.30 	  89.13 	  88.67 	  87.32 	  85.37 	  82.96 	  79.95 	  76.42 	  72.30 	  67.85 	  63.21 	  58.32 	  53.38 	  47.91 	  41.85 	  35.39 	  29.23 	  23.37 	  20.48
  34.00 	  87.25 	  88.29 	  88.83 	  88.67 	  88.17 	  86.76 	  84.70 	  82.17 	  79.01 	  75.30 	  70.99 	  66.34 	  61.50 	  56.42 	  51.30 	  45.64 	  39.42 	  32.81 	  26.54 	  20.63 	  17.95
  35.00 	  86.71 	  87.79 	  88.37 	  88.20 	  87.66 	  86.18 	  84.03 	  81.36 	  78.05 	  74.16 	  69.66 	  64.82 	  59.79 	  54.52 	  49.21 	  43.38 	  37.01 	  30.28 	  23.93 	  17.98 	  15.53
  36.00 	  86.17 	  87.29 	  87.89 	  87.72 	  87.14 	  85.60 	  83.34 	  80.55 	  77.08 	  73.02 	  68.32 	  63.30 	  58.07 	  52.61 	  47.13 	  41.14 	  34.64 	  27.82 	  21.41 	  15.44 	  13.23
  37.00 	  85.63 	  86.79 	  87.42 	  87.24 	  86.63 	  85.01 	  82.65 	  79.73 	  76.11 	  71.87 	  66.98 	  61.77 	  56.36 	  50.72 	  45.06 	  38.90 	  32.31 	  25.44 	  19.00 	  13.05 	  11.06
  38.00 	  85.09 	  86.28 	  86.94 	  86.76 	  86.10 	  84.43 	  81.96 	  78.90 	  75.13 	  70.71 	  65.64 	  60.24 	  54.65 	  48.83 	  43.01 	  36.70 	  30.04 	  23.16 	  16.72 	  10.81 	   9.05
  39.00 	  84.54 	  85.78 	  86.47 	  86.28 	  85.58 	  83.83 	  81.27 	  78.07 	  74.15 	  69.56 	  64.30 	  58.71 	  52.95 	  46.97 	  40.98 	  34.53 	  27.83 	  20.99 	  14.59 	   8.75 	   7.22
  40.00 	  84.00 	  85.28 	  85.99 	  85.80 	  85.06 	  83.24 	  80.57 	  77.24 	  73.17 	  68.40 	  62.97 	  57.20 	  51.28 	  45.14 	  38.99 	  32.40 	  25.71 	  18.94 	  12.63 	   6.88 	   5.57
  41.00 	  83.46 	  84.77 	  85.51 	  85.32 	  84.54 	  82.65 	  79.87 	  76.42 	  72.19 	  67.26 	  61.64 	  55.70 	  49.62 	  43.33 	  37.03 	  30.32 	  23.67 	  17.03 	  10.85 	   5.23 	   4.13
  42.00 	  82.92 	  84.28 	  85.04 	  84.84 	  84.02 	  82.06 	  79.18 	  75.59 	  71.22 	  66.12 	  60.33 	  54.22 	  48.00 	  41.57 	  35.12 	  28.31 	  21.74 	  15.29 	   9.28 	   3.82 	   2.92
  43.00 	  82.39 	  83.78 	  84.57 	  84.37 	  83.50 	  81.47 	  78.49 	  74.77 	  70.26 	  64.99 	  59.04 	  52.76 	  46.41 	  39.85 	  33.27 	  26.36 	  19.92 	  13.71 	   7.92 	   2.66 	   1.95
  44.00 	  81.87 	  83.29 	  84.11 	  83.90 	  82.99 	  80.88 	  77.81 	  73.96 	  69.30 	  63.87 	  57.77 	  51.33 	  44.85 	  38.18 	  31.47 	  24.48 	  18.21 	  12.30 	   6.78 	   1.76 	   1.21
  45.00 	  81.35 	  82.81 	  83.65 	  83.43 	  82.48 	  80.30 	  77.12 	  73.15 	  68.35 	  62.77 	  56.51 	  49.92 	  43.33 	  36.55 	  29.73 	  22.67 	  16.61 	  11.05 	   5.84 	   1.08 	   0.69
  46.00 	  80.83 	  82.33 	  83.19 	  82.97 	  81.97 	  79.72 	  76.44 	  72.35 	  67.41 	  61.67 	  55.27 	  48.54 	  41.84 	  34.97 	  28.04 	  20.92 	  15.12 	   9.95 	   5.09 	   0.62 	   0.37
  47.00 	  80.32 	  81.86 	  82.74 	  82.51 	  81.47 	  79.14 	  75.77 	  71.55 	  66.48 	  60.59 	  54.04 	  47.18 	  40.38 	  33.43 	  26.41 	  19.25 	  13.73 	   9.00 	   4.52 	   0.36 	   0.25
  48.00 	  79.81 	  81.38 	  82.29 	  82.05 	  80.97 	  78.57 	  75.10 	  70.75 	  65.55 	  59.52 	  52.84 	  45.84 	  38.96 	  31.93 	  24.83 	  17.65 	  12.45 	   8.18 	   4.11 	   0.29 	   0.29
  49.00 	  79.30 	  80.91 	  81.84 	  81.59 	  80.47 	  77.99 	  74.43 	  69.96 	  64.63 	  58.46 	  51.65 	  44.52 	  37.57 	  30.48 	  23.30 	  16.12 	  11.26 	   7.49 	   3.86 	   0.39 	   0.49
  50.00 	  78.80 	  80.45 	  81.39 	  81.14 	  79.97 	  77.42 	  73.76 	  69.18 	  63.72 	  57.41 	  50.47 	  43.23 	  36.21 	  29.06 	  21.84 	  14.66 	  10.16 	   6.92 	   3.75 	   0.64 	   0.83
  51.00 	  78.30 	  79.99 	  80.95 	  80.68 	  79.47 	  76.85 	  73.10 	  68.40 	  62.82 	  56.37 	  49.32 	  41.96 	  34.88 	  27.69 	  20.42 	  13.27 	   9.16 	   6.47 	   3.76 	   1.03 	   1.30
  52.00 	  77.80 	  79.52 	  80.50 	  80.23 	  78.98 	  76.28 	  72.44 	  67.62 	  61.92 	  55.34 	  48.18 	  40.71 	  33.58 	  26.36 	  19.07 	  11.96 	   8.24 	   6.11 	   3.89 	   1.55 	   1.87
  53.00 	  77.31 	  79.07 	  80.06 	  79.78 	  78.48 	  75.72 	  71.78 	  66.85 	  61.02 	  54.32 	  47.05 	  39.49 	  32.31 	  25.06 	  17.77 	  10.72 	   7.42 	   5.85 	   4.12 	   2.16 	   2.54
  54.00 	  76.82 	  78.61 	  79.62 	  79.33 	  77.99 	  75.15 	  71.12 	  66.08 	  60.14 	  53.31 	  45.94 	  38.29 	  31.07 	  23.80 	  16.52 	   9.55 	   6.67 	   5.68 	   4.44 	   2.87 	   3.28
  55.00 	  76.33 	  78.15 	  79.18 	  78.88 	  77.50 	  74.58 	  70.47 	  65.32 	  59.26 	  52.31 	  44.85 	  37.11 	  29.86 	  22.59 	  15.33 	   8.46 	   6.01 	   5.59 	   4.83 	   3.64 	   4.07
  56.00 	  75.84 	  77.70 	  78.74 	  78.43 	  77.00 	  74.02 	  69.82 	  64.55 	  58.39 	  51.33 	  43.77 	  35.95 	  28.68 	  21.40 	  14.20 	   7.45 	   5.42 	   5.56 	   5.28 	   4.46 	   4.90
  57.00 	  75.35 	  77.24 	  78.30 	  77.99 	  76.51 	  73.46 	  69.17 	  63.80 	  57.52 	  50.35 	  42.71 	  34.81 	  27.53 	  20.26 	  13.13 	   6.51 	   4.91 	   5.59 	   5.78 	   5.31 	   5.76
  58.00 	  74.87 	  76.79 	  77.86 	  77.54 	  76.02 	  72.89 	  68.52 	  63.04 	  56.66 	  49.38 	  41.66 	  33.70 	  26.41 	  19.14 	  12.11 	   5.65 	   4.47 	   5.67 	   6.30 	   6.18 	   6.60
  59.00 	  74.38 	  76.34 	  77.42 	  77.09 	  75.53 	  72.33 	  67.87 	  62.29 	  55.81 	  48.43 	  40.63 	  32.61 	  25.31 	  18.07 	  11.15 	   4.87 	   4.09 	   5.79 	   6.84 	   7.03 	   7.43
  60.00 	  73.90 	  75.88 	  76.98 	  76.63 	  75.03 	  71.76 	  67.22 	  61.55 	  54.96 	  47.48 	  39.62 	  31.54 	  24.24 	  17.03 	  10.25 	   4.17 	   3.79 	   5.94 	   7.37 	   7.86 	   8.22
  61.00 	  73.41 	  75.42 	  76.54 	  76.18 	  74.54 	  71.20 	  66.58 	  60.80 	  54.12 	  46.55 	  38.62 	  30.49 	  23.19 	  16.02 	   9.40 	   3.56 	   3.54 	   6.11 	   7.88 	   8.63 	   8.94
  62.00 	  72.92 	  74.97 	  76.10 	  75.72 	  74.04 	  70.64 	  65.93 	  60.06 	  53.28 	  45.62 	  37.63 	  29.47 	  22.17 	  15.04 	   8.62 	   3.03 	   3.35 	   6.29 	   8.36 	   9.33 	   9.58
  63.00 	  72.44 	  74.51 	  75.65 	  75.27 	  73.54 	  70.07 	  65.28 	  59.33 	  52.45 	  44.70 	  36.66 	  28.47 	  21.18 	  14.09 	   7.90 	   2.58 	   3.22 	   6.46 	   8.79 	   9.94 	  10.11
  64.00 	  71.95 	  74.05 	  75.20 	  74.81 	  73.04 	  69.51 	  64.64 	  58.59 	  51.63 	  43.80 	  35.71 	  27.49 	  20.21 	  13.18 	   7.24 	   2.22 	   3.14 	   6.63 	   9.14 	  10.43 	  10.51
Defocus Intensity Data: Horiz	Vert
  19.70	  20.04
  20.15	  20.44
  20.41	  20.63
  20.39	  20.66
  19.97	  20.12
  19.28	  19.48
  18.30	  18.64
  17.16	  17.45
  15.87	  16.06
  14.51	  14.76
  13.11	  13.32
  11.77	  11.95
  10.54	  10.76
   9.43	   9.63
   8.44	   8.66
   7.60	   7.77
   6.90	   7.05
   6.28	   6.43
   5.73	   5.84
   5.20	   5.32
   4.80	   4.84
Defocus FWHM Data: Horiz	Vert
   6.32	   6.16
   6.23	   6.08
   6.17	   6.06
   6.19	   6.06
   6.26	   6.16
   6.43	   6.31
   6.69	   6.51
   7.05	   6.88
   7.56	   7.40
   8.29	   8.07
   9.29	   9.06
  10.51	  10.25
  11.82	  11.47
  13.22	  12.83
  14.62	  14.21
  16.11	  15.75
  17.58	  17.25
  19.06	  18.76
  20.53	  20.44
  22.15	  22.13
  23.64	  23.89
Defocus Strehl Ratio Data: Horiz	Vert
   0.00	   0.00
   0.00	   0.00
   0.00	   0.00
   0.00	   0.00
   0.00	   0.00
   0.00	   0.00
   0.00	   0.00
   0.00	   0.00
   0.00	   0.00
   0.00	   0.00
   0.00	   0.00
   0.00	   0.00
   0.00	   0.00
   0.00	   0.00
   0.00	   0.00
   0.00	   0.00
   0.00	   0.00
   0.00	   0.00
   0.00	   0.00
   0.00	   0.00
   0.00	   0.00
Defocus Position
 -50.00
 -40.01
 -30.00
 -20.01
 -10.01
   0.00
  10.00
  20.00
  30.00
  40.00
  50.00
  60.00
  70.00
  80.00
  90.00
 100.00
 110.00
 120.00
 130.00
 140.00
 150.00
